File: data/Scan_1_Detector.UXD
; C:\DIFFDAT1\Praktikum\Ogasa Ruan\Scan_1_Detector.raw(Diffrac Plus V1.01 file) converted by XCH V1.0
_FILEVERSION=2
_SITE='Deutschland'
_USER='Administrator'
_GONIOMETER_CODE=4885
; D8 Theta/Theta; Special
_SAMPLE_CHANGER_CODE=0
_ATTACHMENTS_CODE=0
_GONIOMETER_RADIUS=350
_FIXED_DIVSLIT=0.600000
_FIXED_SAMPLESLIT=0.000000
_FIXED_DETSLIT=11.66
_MONOCHROMATOR=0
; None
_THIN_FILM='N'
_BETA_FILTER='Y'
_FIXED_ANTISLIT=8.340000
_ANALYZER_CODE=0
; None
_DATEMEASURED='19-Jun-2023 10:04:03'
_WL_UNIT='A'
_WL1=1.540600
_WL2=1.544390
_WL3=1.392220
_WLRATIO=0.500000
_ANODE='Cu'
; (Data for Range number 1)
_DRIVE='2THETA'
_STEPTIME=1.000000
_STEPSIZE=0.005000
_STEPMODE='S'
_START=-0.500000
_THETA=0.000000
_2THETA=-0.500000
_KHI=0.000000
_PHI=90
_X=0.500000
_Y=-0.650000
_Z=-15
_DIVERGENCE=0.000000
_ANTISCATTER=0.000000
_DETECTOR=5
_DETECTORSLIT='unkn'
_AUX1=0.000000
_AUX2=0.000000
_AUX3=0.000000
_TIMESTARTED=2.000000
_TEMP_RATE=-1.000000
_TEMP_DELAY=-1.000000
_KV=40
_MA=35
_RANGE_WL=1.540600
_3DPLANE=0
_GONIOMETER=-0.500000
_PSDCHANNEL0=0
_2THETACOUNTS
  -0.5000         1
  -0.4950         0
  -0.4900         1
  -0.4850         1
  -0.4800         0
  -0.4750         1
  -0.4700         0
  -0.4650         2
  -0.4600         0
  -0.4550         1
  -0.4500         1
  -0.4450         1
  -0.4400         0
  -0.4350         1
  -0.4300         3
  -0.4250         1
  -0.4200         2
  -0.4150         7
  -0.4100        17
  -0.4050        20
  -0.4000        29
  -0.3950        33
  -0.3900        32
  -0.3850        37
  -0.3800        52
  -0.3750        57
  -0.3700        53
  -0.3650        66
  -0.3600        86
  -0.3550        96
  -0.3500       125
  -0.3450       139
  -0.3400       142
  -0.3350       199
  -0.3300       233
  -0.3250       284
  -0.3200       326
  -0.3150       392
  -0.3100       387
  -0.3050       493
  -0.3000       620
  -0.2950       693
  -0.2900       795
  -0.2850       986
  -0.2800      1066
  -0.2750      1237
  -0.2700      1417
  -0.2650      1571
  -0.2600      1866
  -0.2550      2009
  -0.2500      2250
  -0.2450      2528
  -0.2400      2723
  -0.2350      3178
  -0.2300      3380
  -0.2250      3942
  -0.2200      4289
  -0.2150      4760
  -0.2100      5207
  -0.2050      6003
  -0.2000      6844
  -0.1950      7554
  -0.1900      8442
  -0.1850      9302
  -0.1800     10611
  -0.1750     11695
  -0.1700     13180
  -0.1650     14922
  -0.1600     16673
  -0.1550     18520
  -0.1500     20907
  -0.1450     24630
  -0.1400     28879
  -0.1350     33567
  -0.1300     38674
  -0.1250     46283
  -0.1200     54950
  -0.1150     67102
  -0.1100     82127
  -0.1050    103485
  -0.1000    133978
  -0.0950    174168
  -0.0900    238098
  -0.0850    272163
  -0.0800    322099
  -0.0750    376941
  -0.0700    430171
  -0.0650    491412
  -0.0600    555441
  -0.0550    628090
  -0.0500    702729
  -0.0450    780093
  -0.0400    840212
  -0.0350    875367
  -0.0300    885985
  -0.0250    913019
  -0.0200    932445
  -0.0150    931560
  -0.0100    925517
  -0.0050    913208
   0.0000    908887
   0.0050    906043
   0.0100    887549
   0.0150    856565
   0.0200    820470
   0.0250    787488
   0.0300    747024
   0.0350    708243
   0.0400    663608
   0.0450    600487
   0.0500    527436
   0.0550    455561
   0.0600    386429
   0.0650    312374
   0.0700    255668
   0.0750    205487
   0.0800    160860
   0.0850    128778
   0.0900    115323
   0.0950     94279
   0.1000     76499
   0.1050     63505
   0.1100     53189
   0.1150     43525
   0.1200     34642
   0.1250     28189
   0.1300     23446
   0.1350     19893
   0.1400     16692
   0.1450     14780
   0.1500     13805
   0.1550     13076
   0.1600     12478
   0.1650     10879
   0.1700      8755
   0.1750      6662
   0.1800      5429
   0.1850      4660
   0.1900      4230
   0.1950      3382
   0.2000      2447
   0.2050      1546
   0.2100      1032
   0.2150       712
   0.2200       557
   0.2250       431
   0.2300       305
   0.2350       236
   0.2400       181
   0.2450       116
   0.2500        81
   0.2550        82
   0.2600        89
   0.2650        54
   0.2700        60
   0.2750        69
   0.2800        50
   0.2850        47
   0.2900        39
   0.2950        39
   0.3000        21
   0.3050        22
   0.3100        15
   0.3150        15
   0.3200        17
   0.3250        13
   0.3300        14
   0.3350        13
   0.3400         6
   0.3450         8
   0.3500         4
   0.3550         2
   0.3600         6
   0.3650         2
   0.3700         4
   0.3750         3
   0.3800         3
   0.3850         2
   0.3900         0
   0.3950         2
   0.4000         3
   0.4050         3
   0.4100         2
   0.4150         3
   0.4200         0
   0.4250         0
   0.4300         2
   0.4350         0
   0.4400         3
   0.4450         2
   0.4500         3
   0.4550         0
   0.4600         1
   0.4650         0
   0.4700         2
   0.4750         1
   0.4800         1
   0.4850         2
   0.4900         1
   0.4950         1
   0.5000         1