File: data/Scan_2_Z.UXD
; C:\DIFFDAT1\Praktikum\Ogasa Ruan\Scan_2_Z.raw(Diffrac Plus V1.01 file) converted by XCH V1.0
_FILEVERSION=2
_SITE='Deutschland'
_USER='Administrator'
_GONIOMETER_CODE=4885
; D8 Theta/Theta; Special
_SAMPLE_CHANGER_CODE=0
_ATTACHMENTS_CODE=0
_GONIOMETER_RADIUS=350
_FIXED_DIVSLIT=0.600000
_FIXED_SAMPLESLIT=0.000000
_FIXED_DETSLIT=11.66
_MONOCHROMATOR=0
; None
_THIN_FILM='N'
_BETA_FILTER='Y'
_FIXED_ANTISLIT=8.340000
_ANALYZER_CODE=0
; None
_DATEMEASURED='19-Jun-2023 10:29:51'
_WL_UNIT='A'
_WL1=1.540600
_WL2=1.544390
_WL3=1.392220
_WLRATIO=0.500000
_ANODE='Cu'
; (Data for Range number 1)
_DRIVE='Z'
_STEPTIME=1.000000
_STEPSIZE=0.010000
_STEPMODE='C'
_START=-1.000000
_THETA=0.000000
_2THETA=0.000000
_KHI=0.000000
_PHI=90
_X=0.000000
_Y=-0.650000
_Z=-1.000000
_DIVERGENCE=0.000000
_ANTISCATTER=0.000000
_DETECTOR=5
_DETECTORSLIT='unkn'
_AUX1=0.000000
_AUX2=0.000000
_AUX3=0.000000
_TIMESTARTED=4.000000
_TEMP_RATE=-1.000000
_TEMP_DELAY=-1.000000
_KV=40
_MA=35
_RANGE_WL=1.540600
_3DPLANE=0
_GONIOMETER=0.000000
_PSDCHANNEL0=0
_2THETACOUNTS
  -1.0000    914283
  -0.9900    916171
  -0.9800    917553
  -0.9700    918754
  -0.9600    920800
  -0.9500    922278
  -0.9400    918478
  -0.9300    918509
  -0.9200    916416
  -0.9100    912616
  -0.9000    915815
  -0.8900    914670
  -0.8800    917814
  -0.8700    915997
  -0.8600    916124
  -0.8500    916882
  -0.8400    911984
  -0.8300    920571
  -0.8200    917411
  -0.8100    916969
  -0.8000    921891
  -0.7900    916906
  -0.7800    914117
  -0.7700    921401
  -0.7600    920437
  -0.7500    919449
  -0.7400    917174
  -0.7300    911336
  -0.7200    918904
  -0.7100    919560
  -0.7000    918264
  -0.6900    917617
  -0.6800    915571
  -0.6700    917151
  -0.6600    918636
  -0.6500    914923
  -0.6400    911881
  -0.6300    911873
  -0.6200    915966
  -0.6100    913588
  -0.6000    917901
  -0.5900    914875
  -0.5800    916677
  -0.5700    914291
  -0.5600    923431
  -0.5500    920382
  -0.5400    912813
  -0.5300    918699
  -0.5200    915989
  -0.5100    916526
  -0.5000    918083
  -0.4900    911273
  -0.4800    917538
  -0.4700    916629
  -0.4600    916763
  -0.4500    917719
  -0.4400    911605
  -0.4300    916582
  -0.4200    916210
  -0.4100    914267
  -0.4000    910546
  -0.3900    920232
  -0.3800    923083
  -0.3700    920627
  -0.3600    914741
  -0.3500    918786
  -0.3400    916629
  -0.3300    915397
  -0.3200    914662
  -0.3100    921180
  -0.3000    919773
  -0.2900    916440
  -0.2800    917459
  -0.2700    916155
  -0.2600    914575
  -0.2500    919710
  -0.2400    916842
  -0.2300    917664
  -0.2200    914409
  -0.2100    922088
  -0.2000    914378
  -0.1900    908555
  -0.1800    906343
  -0.1700    899360
  -0.1600    888276
  -0.1500    881529
  -0.1400    873511
  -0.1300    866109
  -0.1200    852592
  -0.1100    841721
  -0.1000    827904
  -0.0900    813447
  -0.0800    795656
  -0.0700    778047
  -0.0600    763203
  -0.0500    735411
  -0.0400    713868
  -0.0300    685104
  -0.0200    656474
  -0.0100    627513
   0.0000    594064
   0.0100    564194
   0.0200    531725
   0.0300    499241
   0.0400    466424
   0.0500    431506
   0.0600    403477
   0.0700    373220
   0.0800    344211
   0.0900    319847
   0.1000    293959
   0.1100    272439
   0.1200    248021
   0.1300    230925
   0.1400    210859
   0.1500    190232
   0.1600    168957
   0.1700    150685
   0.1800    136685
   0.1900    120993
   0.2000    104584
   0.2100     90312
   0.2200     76479
   0.2300     65068
   0.2400     54805
   0.2500     46149
   0.2600     38307
   0.2700     31695
   0.2800     24958
   0.2900     20180
   0.3000     16202
   0.3100     12973
   0.3200     10213
   0.3300      8056
   0.3400      6049
   0.3500      4460
   0.3600      3151
   0.3700      2199
   0.3800      1535
   0.3900       902
   0.4000       442
   0.4100       181
   0.4200        29
   0.4300         1
   0.4400         0
   0.4500         1
   0.4600         0
   0.4700         0
   0.4800         0
   0.4900         0
   0.5000         0
   0.5100         0
   0.5200         0
   0.5300         0
   0.5400         0
   0.5500         0
   0.5600         0
   0.5700         0
   0.5800         0
   0.5900         0
   0.6000         0
   0.6100         0
   0.6200         0
   0.6300         0
   0.6400         0
   0.6500         0
   0.6600         0
   0.6700         0
   0.6800         0
   0.6900         0
   0.7000         0
   0.7100         0
   0.7200         0
   0.7300         0
   0.7400         0
   0.7500         0
   0.7600         0
   0.7700         0
   0.7800         0
   0.7900         0
   0.8000         0
   0.8100         0
   0.8200         0
   0.8300         0
   0.8400         0
   0.8500         0
   0.8600         0
   0.8700         0
   0.8800         0
   0.8900         0
   0.9000         0
   0.9100         0
   0.9200         0
   0.9300         0
   0.9400         0
   0.9500         0
   0.9600         0
   0.9700         0
   0.9800         0
   0.9900         0
   1.0000         0