File: data/Scan_7_Oszillation_bei_0,1.UXD
; C:\DIFFDAT1\Praktikum\Ogasa Ruan\Scan_7_Oszillation_bei_0,1raw.raw(Diffrac Plus V1.01 file) converted by XCH V1.0
_FILEVERSION=2
_SITE='Deutschland'
_USER='Administrator'
_GONIOMETER_CODE=4885
; D8 Theta/Theta; Special
_SAMPLE_CHANGER_CODE=0
_ATTACHMENTS_CODE=0
_GONIOMETER_RADIUS=350
_FIXED_DIVSLIT=0.600000
_FIXED_SAMPLESLIT=0.000000
_FIXED_DETSLIT=11.66
_MONOCHROMATOR=0
; None
_THIN_FILM='N'
_BETA_FILTER='Y'
_FIXED_ANTISLIT=8.340000
_ANALYZER_CODE=0
; None
_DATEMEASURED='19-Jun-2023 13:22:26'
_WL_UNIT='A'
_WL1=1.540600
_WL2=1.544390
_WL3=1.392220
_WLRATIO=0.500000
_ANODE='Cu'
; (Data for Range number 1)
_DRIVE='THETA'
_STEPTIME=5.000660
_STEPSIZE=0.005000
_STEPMODE='C'
_START=0.000000
_THETA=0.000000
_2THETA=0.100000
_KHI=0.000000
_PHI=90
_X=0.000000
_Y=1.300000
_Z=0.260000
_DIVERGENCE=0.000000
_ANTISCATTER=0.000000
_DETECTOR=5
_DETECTORSLIT='unkn'
_AUX1=0.000000
_AUX2=0.000000
_AUX3=0.000000
_TIMESTARTED=4.000000
_TEMP_RATE=-1.000000
_TEMP_DELAY=-1.000000
_KV=40
_MA=35
_RANGE_WL=1.540600
_3DPLANE=0
_GONIOMETER=0.097500
_PSDCHANNEL0=0
_2THETACOUNTS
   0.0000    379920
   0.0100    225584
   0.0200    134088
   0.0300     98578
   0.0400     90574
   0.0500     73753
   0.0600     67941
   0.0700     69791
   0.0800     75417
   0.0900     88318
   0.1000     96679
   0.1100    106216
   0.1200    104194
   0.1300    102271
   0.1400    101659
   0.1500     83710
   0.1600     59357
   0.1700     38260
   0.1800     26298
   0.1900     20724
   0.2000     16452
   0.2100     11872
   0.2200      8027
   0.2300      5883
   0.2400      4928
   0.2500      3808
   0.2600      2633
   0.2700      1834
   0.2800      1796
   0.2900      1792
   0.3000      1522
   0.3100      1102
   0.3200       891
   0.3300       910
   0.3400       990
   0.3500       858
   0.3600       582
   0.3700       529
   0.3800       508
   0.3900       551
   0.4000       500
   0.4100       435
   0.4200       325
   0.4300       313
   0.4400       363
   0.4500       369
   0.4600       297
   0.4700       255
   0.4800       217
   0.4900       259
   0.5000       246
   0.5100       211
   0.5200       183
   0.5300       161
   0.5400       168
   0.5500       185
   0.5600       149
   0.5700       130
   0.5800       116
   0.5900       140
   0.6000       136
   0.6100       119
   0.6200       124
   0.6300        92
   0.6400        88
   0.6500       101
   0.6600       112
   0.6700        90
   0.6800        68
   0.6900        67
   0.7000        76
   0.7100        79
   0.7200        66
   0.7300        54
   0.7400        58
   0.7500        62
   0.7600        58
   0.7700        58
   0.7800        51
   0.7900        41
   0.8000        39
   0.8100        49
   0.8200        37
   0.8300        33
   0.8400        23
   0.8500        36
   0.8600        38
   0.8700        42
   0.8800        24
   0.8900        38
   0.9000        35
   0.9100        35
   0.9200        26
   0.9300        27
   0.9400        37
   0.9500        17
   0.9600        36
   0.9700        30
   0.9800        33
   0.9900        30
   1.0000        16
   1.0100        21
   1.0200        11
   1.0300        10
   1.0400        19
   1.0500        10
   1.0600        12
   1.0700        10
   1.0800        10
   1.0900        14
   1.1000        13
   1.1100        12
   1.1200         8
   1.1300         6
   1.1400         6
   1.1500        10
   1.1600         8
   1.1700         7
   1.1800         5
   1.1900         4
   1.2000         2
   1.2100        11
   1.2200         3
   1.2300         4
   1.2400         8
   1.2500         4
   1.2600         4
   1.2700         2
   1.2800        10
   1.2900         6
   1.3000         5
   1.3100         3
   1.3200         2
   1.3300         4
   1.3400         0
   1.3500         4
   1.3600         6
   1.3700         5
   1.3800         3
   1.3900         4
   1.4000         1
   1.4100         4
   1.4200         3
   1.4300         3
   1.4400         1
   1.4500         3
   1.4600         1
   1.4700         1
   1.4800         2
   1.4900         1
   1.5000         2
   1.5100         3
   1.5200         2
   1.5300         1
   1.5400         0
   1.5500         2
   1.5600         3
   1.5700         1
   1.5800         3
   1.5900         0
   1.6000         4
   1.6100         3
   1.6200         1
   1.6300         0
   1.6400         0
   1.6500         3
   1.6600         2
   1.6700         0
   1.6800         1
   1.6900         1
   1.7000         1
   1.7100         1
   1.7200         1
   1.7300         1
   1.7400         0
   1.7500         0
   1.7600         0
   1.7700         1
   1.7800         1
   1.7900         1
   1.8000         1
   1.8100         0
   1.8200         1
   1.8300         3
   1.8400         0
   1.8500         3
   1.8600         0
   1.8700         2
   1.8800         0
   1.8900         1
   1.9000         0
   1.9100         1
   1.9200         0
   1.9300         0
   1.9400         0
   1.9500         1
   1.9600         0
   1.9700         0
   1.9800         0
   1.9900         0
   2.0000         2
   2.0100         0
   2.0200         0
   2.0300         0
   2.0400         1
   2.0500         0
   2.0600         0
   2.0700         1
   2.0800         0
   2.0900         0
   2.1000         0
   2.1100         1
   2.1200         1
   2.1300         0
   2.1400         1
   2.1500         0
   2.1600         0
   2.1700         1
   2.1800         0
   2.1900         0
   2.2000         1
   2.2100         0
   2.2200         3
   2.2300         1
   2.2400         1
   2.2500         0
   2.2600         0
   2.2700         0
   2.2800         1
   2.2900         1
   2.3000         2
   2.3100         0
   2.3200         0
   2.3300         0
   2.3400         0
   2.3500         0
   2.3600         2
   2.3700         0
   2.3800         0
   2.3900         1
   2.4000         1
   2.4100         1
   2.4200         1
   2.4300         0
   2.4400         2
   2.4500         0
   2.4600         0
   2.4700         0
   2.4800         0
   2.4900         0
   2.5000         0