File: data/Scan_3_Rocking.UXD
; C:\DIFFDAT1\Praktikum\Ogasa Ruan\Scan_3_Rocking.raw(Diffrac Plus V1.01 file) converted by XCH V1.0
_FILEVERSION=2
_SITE='Deutschland'
_USER='Administrator'
_GONIOMETER_CODE=4885
; D8 Theta/Theta; Special
_SAMPLE_CHANGER_CODE=0
_ATTACHMENTS_CODE=0
_GONIOMETER_RADIUS=350
_FIXED_DIVSLIT=0.600000
_FIXED_SAMPLESLIT=0.000000
_FIXED_DETSLIT=11.66
_MONOCHROMATOR=0
; None
_THIN_FILM='N'
_BETA_FILTER='Y'
_FIXED_ANTISLIT=8.340000
_ANALYZER_CODE=0
; None
_DATEMEASURED='19-Jun-2023 11:16:57'
_WL_UNIT='A'
_WL1=1.540600
_WL2=1.544390
_WL3=1.392220
_WLRATIO=0.500000
_ANODE='Cu'
; (Data for Range number 1)
_DRIVE='THETA'
_STEPTIME=0.999980
_STEPSIZE=0.020000
_STEPMODE='C'
_START=-2.500000
_THETA=-2.500000
_2THETA=0.000000
_KHI=0.000000
_PHI=90
_X=0.000000
_Y=0.900000
_Z=0.040000
_DIVERGENCE=0.000000
_ANTISCATTER=0.000000
_DETECTOR=5
_DETECTORSLIT='unkn'
_AUX1=0.000000
_AUX2=0.000000
_AUX3=0.000000
_TIMESTARTED=4.000000
_TEMP_RATE=-1.000000
_TEMP_DELAY=-1.000000
_KV=40
_MA=35
_RANGE_WL=1.540600
_3DPLANE=0
_GONIOMETER=-0.000500
_PSDCHANNEL0=0
_2THETACOUNTS
  -2.5000         0
  -2.4800         0
  -2.4600         0
  -2.4400         0
  -2.4200         0
  -2.4000         0
  -2.3800         0
  -2.3600         0
  -2.3400         0
  -2.3200         0
  -2.3000         0
  -2.2800         1
  -2.2600         0
  -2.2400        66
  -2.2200       295
  -2.2000       596
  -2.1800      1031
  -2.1600      1605
  -2.1400      2429
  -2.1200      3328
  -2.1000      4669
  -2.0800      6330
  -2.0600      8241
  -2.0400     10637
  -2.0200     13467
  -2.0000     16579
  -1.9800     20929
  -1.9600     25793
  -1.9400     29008
  -1.9200     31966
  -1.9000     34345
  -1.8800     36709
  -1.8600     39673
  -1.8400     42210
  -1.8200     45080
  -1.8000     48097
  -1.7800     51480
  -1.7600     54151
  -1.7400     57316
  -1.7200     61089
  -1.7000     65063
  -1.6800     68861
  -1.6600     73056
  -1.6400     77277
  -1.6200     81459
  -1.6000     86363
  -1.5800     90275
  -1.5600     95269
  -1.5400     99861
  -1.5200    105263
  -1.5000    110518
  -1.4800    116517
  -1.4600    122529
  -1.4400    128891
  -1.4200    135571
  -1.4000    142220
  -1.3800    149038
  -1.3600    156841
  -1.3400    163009
  -1.3200    170600
  -1.3000    175906
  -1.2800    183141
  -1.2600    189671
  -1.2400    196238
  -1.2200    203575
  -1.2000    205045
  -1.1800    211341
  -1.1600    218206
  -1.1400    225632
  -1.1200    230759
  -1.1000    237348
  -1.0800    247626
  -1.0600    252215
  -1.0400    259997
  -1.0200    264705
  -1.0000    273064
  -0.9800    281066
  -0.9600    289274
  -0.9400    294054
  -0.9200    304387
  -0.9000    311552
  -0.8800    321720
  -0.8600    330931
  -0.8400    341612
  -0.8200    350025
  -0.8000    361662
  -0.7800    366623
  -0.7600    379745
  -0.7400    390339
  -0.7200    397978
  -0.7000    408343
  -0.6800    416599
  -0.6600    431751
  -0.6400    444099
  -0.6200    452915
  -0.6000    464370
  -0.5800    476030
  -0.5600    490874
  -0.5400    496689
  -0.5200    514314
  -0.5000    523723
  -0.4800    529995
  -0.4600    544618
  -0.4400    554754
  -0.4200    569693
  -0.4000    581250
  -0.3800    595976
  -0.3600    604279
  -0.3400    618246
  -0.3200    629022
  -0.3000    639213
  -0.2800    645991
  -0.2600    663600
  -0.2400    669359
  -0.2200    677472
  -0.2000    688098
  -0.1800    695935
  -0.1600    708938
  -0.1400    712738
  -0.1200    720520
  -0.1000    732196
  -0.0800    738998
  -0.0600    745349
  -0.0400    749797
  -0.0200    761979
   0.0000    771751
   0.0200    767833
   0.0400    760154
   0.0600    754837
   0.0800    742884
   0.1000    742331
   0.1200    731398
   0.1400    721460
   0.1600    717928
   0.1800    705754
   0.2000    696464
   0.2200    688864
   0.2400    681209
   0.2600    678428
   0.2800    664524
   0.3000    655969
   0.3200    644111
   0.3400    632498
   0.3600    624985
   0.3800    612534
   0.4000    604397
   0.4200    592713
   0.4400    577838
   0.4600    566130
   0.4800    556903
   0.5000    542951
   0.5200    535897
   0.5400    518548
   0.5600    510340
   0.5800    498672
   0.6000    485795
   0.6200    475849
   0.6400    465705
   0.6600    454369
   0.6800    445252
   0.7000    431561
   0.7200    419569
   0.7400    412388
   0.7600    402157
   0.7800    393049
   0.8000    382076
   0.8200    372035
   0.8400    363748
   0.8600    353328
   0.8800    343579
   0.9000    336674
   0.9200    325575
   0.9400    315937
   0.9600    309056
   0.9800    301053
   1.0000    293137
   1.0200    285143
   1.0400    275078
   1.0600    265559
   1.0800    262470
   1.1000    252215
   1.1200    245919
   1.1400    237845
   1.1600    228958
   1.1800    222464
   1.2000    216642
   1.2200    208284
   1.2400    202951
   1.2600    197484
   1.2800    188478
   1.3000    180539
   1.3200    176668
   1.3400    167156
   1.3600    162203
   1.3800    154058
   1.4000    156142
   1.4200    147775
   1.4400    140481
   1.4600    134411
   1.4800    127738
   1.5000    121551
   1.5200    116173
   1.5400    110619
   1.5600    104709
   1.5800    100044
   1.6000     95214
   1.6200     89923
   1.6400     86173
   1.6600     81299
   1.6800     76948
   1.7000     72742
   1.7200     68684
   1.7400     64943
   1.7600     61154
   1.7800     57749
   1.8000     54533
   1.8200     51532
   1.8400     48531
   1.8600     45548
   1.8800     42630
   1.9000     39764
   1.9200     37148
   1.9400     34566
   1.9600     32076
   1.9800     29929
   2.0000     27708
   2.0200     25639
   2.0400     21429
   2.0600     16789
   2.0800     12864
   2.1000      9752
   2.1200      7423
   2.1400      5416
   2.1600      3782
   2.1800      2805
   2.2000      1830
   2.2200      1055
   2.2400       526
   2.2600       189
   2.2800        32
   2.3000         1
   2.3200         0
   2.3400         0
   2.3600         0
   2.3800         0
   2.4000         0
   2.4200         0
   2.4400         0
   2.4600         0
   2.4800         0
   2.5000         0