File: data/Scan_4_Z.UXD
; C:\DIFFDAT1\Praktikum\Ogasa Ruan\Scan_4_Z.raw(Diffrac Plus V1.01 file) converted by XCH V1.0
_FILEVERSION=2
_SITE='Deutschland'
_USER='Administrator'
_GONIOMETER_CODE=4885
; D8 Theta/Theta; Special
_SAMPLE_CHANGER_CODE=0
_ATTACHMENTS_CODE=0
_GONIOMETER_RADIUS=350
_FIXED_DIVSLIT=0.600000
_FIXED_SAMPLESLIT=0.000000
_FIXED_DETSLIT=11.66
_MONOCHROMATOR=0
; None
_THIN_FILM='N'
_BETA_FILTER='Y'
_FIXED_ANTISLIT=8.340000
_ANALYZER_CODE=0
; None
_DATEMEASURED='19-Jun-2023 11:27:01'
_WL_UNIT='A'
_WL1=1.540600
_WL2=1.544390
_WL3=1.392220
_WLRATIO=0.500000
_ANODE='Cu'
; (Data for Range number 1)
_DRIVE='Z'
_STEPTIME=1.000000
_STEPSIZE=0.010000
_STEPMODE='C'
_START=-1.000000
_THETA=0.000000
_2THETA=0.000000
_KHI=0.000000
_PHI=90
_X=0.000000
_Y=0.900000
_Z=-1.000000
_DIVERGENCE=0.000000
_ANTISCATTER=0.000000
_DETECTOR=5
_DETECTORSLIT='unkn'
_AUX1=0.000000
_AUX2=0.000000
_AUX3=0.000000
_TIMESTARTED=3.000000
_TEMP_RATE=-1.000000
_TEMP_DELAY=-1.000000
_KV=40
_MA=35
_RANGE_WL=1.540600
_3DPLANE=0
_GONIOMETER=0.000000
_PSDCHANNEL0=0
_2THETACOUNTS
  -1.0000    895710
  -0.9900    897788
  -0.9800    892329
  -0.9700    895789
  -0.9600    896081
  -0.9500    895046
  -0.9400    896081
  -0.9300    896042
  -0.9200    892273
  -0.9100    893308
  -0.9000    894209
  -0.8900    893680
  -0.8800    894770
  -0.8700    895497
  -0.8600    898759
  -0.8500    896144
  -0.8400    890591
  -0.8300    897890
  -0.8200    894730
  -0.8100    891357
  -0.8000    890986
  -0.7900    900087
  -0.7800    893774
  -0.7700    893048
  -0.7600    894533
  -0.7500    896855
  -0.7400    891310
  -0.7300    896776
  -0.7200    897993
  -0.7100    895299
  -0.7000    894517
  -0.6900    895765
  -0.6800    892424
  -0.6700    895299
  -0.6600    894549
  -0.6500    895986
  -0.6400    891626
  -0.6300    897314
  -0.6200    896318
  -0.6100    893925
  -0.6000    896334
  -0.5900    897448
  -0.5800    895441
  -0.5700    891096
  -0.5600    894691
  -0.5500    893901
  -0.5400    892408
  -0.5300    898886
  -0.5200    890978
  -0.5100    897487
  -0.5000    893403
  -0.4900    892005
  -0.4800    899810
  -0.4700    889888
  -0.4600    894470
  -0.4500    892147
  -0.4400    890046
  -0.4300    897440
  -0.4200    893395
  -0.4100    899020
  -0.4000    893948
  -0.3900    894683
  -0.3800    896050
  -0.3700    893111
  -0.3600    896042
  -0.3500    893640
  -0.3400    891942
  -0.3300    896895
  -0.3200    895836
  -0.3100    895631
  -0.3000    896911
  -0.2900    892131
  -0.2800    894106
  -0.2700    895876
  -0.2600    896460
  -0.2500    893877
  -0.2400    897519
  -0.2300    893427
  -0.2200    893498
  -0.2100    897401
  -0.2000    891231
  -0.1900    893980
  -0.1800    892826
  -0.1700    896476
  -0.1600    896160
  -0.1500    898096
  -0.1400    898483
  -0.1300    901185
  -0.1200    900561
  -0.1100    899502
  -0.1000    901366
  -0.0900    901959
  -0.0800    897250
  -0.0700    898443
  -0.0600    900450
  -0.0500    895394
  -0.0400    886759
  -0.0300    880186
  -0.0200    870548
  -0.0100    865808
   0.0000    855728
   0.0100    841571
   0.0200    828821
   0.0300    812728
   0.0400    800041
   0.0500    780323
   0.0600    760517
   0.0700    739124
   0.0800    710637
   0.0900    689370
   0.1000    659231
   0.1100    627718
   0.1200    591157
   0.1300    561327
   0.1400    522103
   0.1500    491206
   0.1600    454392
   0.1700    423132
   0.1800    391737
   0.1900    361899
   0.2000    334186
   0.2100    308076
   0.2200    286075
   0.2300    261522
   0.2400    241408
   0.2500    218072
   0.2600    197603
   0.2700    174558
   0.2800    156736
   0.2900    141642
   0.3000    123534
   0.3100    106696
   0.3200     90901
   0.3300     76362
   0.3400     64437
   0.3500     53954
   0.3600     44072
   0.3700     36360
   0.3800     28708
   0.3900     23309
   0.4000     17933
   0.4100     14182
   0.4200     11084
   0.4300      8540
   0.4400      6416
   0.4500      4693
   0.4600      3268
   0.4700      2270
   0.4800      1502
   0.4900       933
   0.5000       572
   0.5100       351
   0.5200       307
   0.5300       388
   0.5400       580
   0.5500       710
   0.5600      1039
   0.5700      1444
   0.5800      1904
   0.5900      2403
   0.6000      2925
   0.6100      3535
   0.6200      3933
   0.6300      4536
   0.6400      5056
   0.6500      6021
   0.6600      6445
   0.6700      7298
   0.6800      8420
   0.6900     10138
   0.7000     12219
   0.7100     14789
   0.7200     17739
   0.7300     21068
   0.7400     24543
   0.7500     28331
   0.7600     32524
   0.7700     36639
   0.7800     40835
   0.7900     44401
   0.8000     47673
   0.8100     50143
   0.8200     51122
   0.8300     51147
   0.8400     50158
   0.8500     47165
   0.8600     45813
   0.8700     44421
   0.8800     41756
   0.8900     38678
   0.9000     35133
   0.9100     32511
   0.9200     28992
   0.9300     25986
   0.9400     22669
   0.9500     19470
   0.9600     16315
   0.9700     13268
   0.9800     10789
   0.9900      8207
   1.0000      6982