File: data/Scan_6_Oszillation_bei_0.UXD
; C:\DIFFDAT1\Praktikum\Ogasa Ruan\Scan_6_Oszillation_bei_0.raw(Diffrac Plus V1.01 file) converted by XCH V1.0
_FILEVERSION=2
_SITE='Deutschland'
_USER='Administrator'
_GONIOMETER_CODE=4885
; D8 Theta/Theta; Special
_SAMPLE_CHANGER_CODE=0
_ATTACHMENTS_CODE=0
_GONIOMETER_RADIUS=350
_FIXED_DIVSLIT=0.600000
_FIXED_SAMPLESLIT=0.000000
_FIXED_DETSLIT=11.66
_MONOCHROMATOR=0
; None
_THIN_FILM='N'
_BETA_FILTER='Y'
_FIXED_ANTISLIT=8.340000
_ANALYZER_CODE=0
; None
_DATEMEASURED='19-Jun-2023 12:14:39'
_WL_UNIT='A'
_WL1=1.540600
_WL2=1.544390
_WL3=1.392220
_WLRATIO=0.500000
_ANODE='Cu'
; (Data for Range number 1)
_DRIVE='THETA'
_STEPTIME=5.000660
_STEPSIZE=0.005000
_STEPMODE='C'
_START=0.000000
_THETA=0.000000
_2THETA=0.000000
_KHI=0.000000
_PHI=90
_X=0.000000
_Y=1.300000
_Z=0.260000
_DIVERGENCE=0.000000
_ANTISCATTER=0.000000
_DETECTOR=5
_DETECTORSLIT='unkn'
_AUX1=0.000000
_AUX2=0.000000
_AUX3=0.000000
_TIMESTARTED=2.000000
_TEMP_RATE=-1.000000
_TEMP_DELAY=-1.000000
_KV=40
_MA=35
_RANGE_WL=1.540600
_3DPLANE=0
_GONIOMETER=-0.002400
_PSDCHANNEL0=0
_2THETACOUNTS
   0.0000    727874
   0.0100   1426650
   0.0200   2231930
   0.0300   2095980
   0.0400    971273
   0.0500    445331
   0.0600    266360
   0.0700    177941
   0.0800    149403
   0.0900    152138
   0.1000    146108
   0.1100    153283
   0.1200    167338
   0.1300    183271
   0.1400    200794
   0.1500    220547
   0.1600    241568
   0.1700    261743
   0.1800    279770
   0.1900    276561
   0.2000    285690
   0.2100    292993
   0.2200    308096
   0.2300    306003
   0.2400    281024
   0.2500    220451
   0.2600    128334
   0.2700     59076
   0.2800     38662
   0.2900     33901
   0.3000     24080
   0.3100     14175
   0.3200     11631
   0.3300     12464
   0.3400     11032
   0.3500      7405
   0.3600      5386
   0.3700      5677
   0.3800      6142
   0.3900      5082
   0.4000      3500
   0.4100      3170
   0.4200      3393
   0.4300      3415
   0.4400      2857
   0.4500      2076
   0.4600      1990
   0.4700      2163
   0.4800      2151
   0.4900      1797
   0.5000      1438
   0.5100      1338
   0.5200      1513
   0.5300      1386
   0.5400      1178
   0.5500       936
   0.5600      1008
   0.5700      1026
   0.5800       957
   0.5900       863
   0.6000       712
   0.6100       701
   0.6200       799
   0.6300       711
   0.6400       617
   0.6500       570
   0.6600       560
   0.6700       526
   0.6800       531
   0.6900       489
   0.7000       402
   0.7100       407
   0.7200       454
   0.7300       388
   0.7400       364
   0.7500       346
   0.7600       294
   0.7700       345
   0.7800       290
   0.7900       304
   0.8000       254
   0.8100       244
   0.8200       244
   0.8300       234
   0.8400       234
   0.8500       188
   0.8600       198
   0.8700       180
   0.8800       177
   0.8900       175
   0.9000       155
   0.9100       140
   0.9200       147
   0.9300       133
   0.9400       127
   0.9500       135
   0.9600       111
   0.9700       108
   0.9800       130
   0.9900       108
   1.0000       125
   1.0100       105
   1.0200        92
   1.0300        82
   1.0400       117
   1.0500        88
   1.0600        80
   1.0700        64
   1.0800        59
   1.0900        58
   1.1000        61
   1.1100        47
   1.1200        50
   1.1300        63
   1.1400        62
   1.1500        71
   1.1600        42
   1.1700        44
   1.1800        44
   1.1900        41
   1.2000        63
   1.2100        40
   1.2200        45
   1.2300        42
   1.2400        32
   1.2500        28
   1.2600        34
   1.2700        40
   1.2800        16
   1.2900        27
   1.3000        23
   1.3100        29
   1.3200        21
   1.3300        21
   1.3400        27
   1.3500        26
   1.3600        20
   1.3700        15
   1.3800        15
   1.3900        16
   1.4000        13
   1.4100        15
   1.4200        16
   1.4300        12
   1.4400        12
   1.4500        11
   1.4600        10
   1.4700        17
   1.4800         5
   1.4900         5
   1.5000        13
   1.5100        14
   1.5200        11
   1.5300         8
   1.5400        12
   1.5500         7
   1.5600         6
   1.5700        10
   1.5800         8
   1.5900         3
   1.6000        11
   1.6100         8
   1.6200         4
   1.6300         4
   1.6400         7
   1.6500         1
   1.6600         6
   1.6700         2
   1.6800         7
   1.6900         7
   1.7000         9
   1.7100         7
   1.7200         3
   1.7300         5
   1.7400         5
   1.7500         4
   1.7600         2
   1.7700         3
   1.7800         7
   1.7900         2
   1.8000         4
   1.8100         3
   1.8200         5
   1.8300         4
   1.8400         4
   1.8500         2
   1.8600         3
   1.8700         5
   1.8800         3
   1.8900         2
   1.9000         3
   1.9100         2
   1.9200         4
   1.9300         3
   1.9400         2
   1.9500         4
   1.9600         0
   1.9700         2
   1.9800         2
   1.9900         2
   2.0000         2
   2.0100         2
   2.0200         1
   2.0300         2
   2.0400         1
   2.0500         2
   2.0600         3
   2.0700         1
   2.0800         3
   2.0900         2
   2.1000         3
   2.1100         3
   2.1200         2
   2.1300         1
   2.1400         0
   2.1500         1
   2.1600         0
   2.1700         2
   2.1800         1
   2.1900         1
   2.2000         2
   2.2100         2
   2.2200         1
   2.2300         0
   2.2400         1
   2.2500         0
   2.2600         2
   2.2700         4
   2.2800         1
   2.2900         4
   2.3000         0
   2.3100         0
   2.3200         2
   2.3300         0
   2.3400         0
   2.3500         3
   2.3600         0
   2.3700         1
   2.3800         0
   2.3900         1
   2.4000         1
   2.4100         1
   2.4200         0
   2.4300         0
   2.4400         0
   2.4500         0
   2.4600         0
   2.4700         0
   2.4800         1
   2.4900         0
   2.5000         0